Pcell	transmission
150.852	46636.3
150.802	46612.6
150.818	46589
150.814	46565.5
150.804	46542.1
150.805	46518.8
150.815	46495.4
150.794	46472.2
150.806	46449
150.817	46425.8
150.794	46402.6
150.794	46379.5
150.817	46356.2
150.794	46333
150.812	46309.7
150.809	46286.4
150.817	46262.9
150.794	46239.5
150.811	46216
150.819	46192.4
150.818	46168.7
150.793	46145
150.793	46121.4
150.816	46097.7
150.813	46074
150.795	46050.2
150.809	46026.4
150.795	46002.7
150.795	45979
150.813	45955.2
150.794	45931.4
150.796	45907.6
150.811	45883.8
150.794	45860
150.795	45836.1
150.804	45812.3
150.795	45788.4
150.792	45764.6
150.8	45740.7
150.793	45716.9
150.793	45693.1
150.796	45669.2
150.794	45645.3
150.792	45621.5
150.796	45597.6
150.811	45573.5
150.794	45549.5
150.793	45525.5
150.796	45501.5
150.801	45477.4
150.791	45453.4
150.796	45429.3
150.796	45405.2
150.794	45381.2
150.798	45357
150.793	45332.9
150.796	45308.8
150.8	45284.7
150.792	45260.5
150.795	45236.4
150.793	45212.2
150.794	45188.1
150.794	45163.9
150.793	45139.8
150.792	45115.6
150.794	45091.5
150.793	45067.3
150.793	45043.1
150.794	45018.9
150.791	44994.8
150.791	44970.6
150.775	44946.5
150.789	44922.5
150.78	44898.5
150.785	44874.5
150.778	44850.5
150.794	44826.5
150.795	44802.4
150.797	44778.3
150.799	44754
150.797	44729.8
150.795	44705.5
150.808	44681.1
150.795	44656.7
150.797	44632.3
150.808	44607.8
150.795	44583.3
150.794	44558.8
150.802	44534.4
150.794	44509.9
150.78	44485.6
150.788	44461.3
150.794	44437
150.798	44412.6
150.796	44388.3
150.791	44364
150.801	44339.6
150.808	44315.2
150.804	44290.7
150.793	44266.2
150.793	44241.8
150.793	44217.4
150.794	44193
150.798	44168.6
150.802	44144.2
150.795	44119.8
150.794	44095.4
150.79	44071.1
150.797	44046.8
150.793	44022.4
150.794	43998.1
150.788	43973.8
150.783	43949.7
150.789	43925.5
150.789	43901.3
150.775	43877.2
150.773	43853.3
150.776	43829.4
150.772	43805.5
150.774	43781.7
150.77	43758
150.764	43734.3
150.78	43710.6
150.76	43686.9
150.77	43663.3
150.771	43639.7
150.766	43616
150.756	43592.5
150.774	43568.8
150.76	43545.3
150.755	43521.7
150.755	43498.2
150.762	43474.7
150.772	43451.1
150.754	43427.5
150.747	43404
150.757	43380.5
150.757	43356.9
150.748	43333.4
150.748	43309.9
150.745	43286.5
150.743	43263
150.74	43239.7
150.742	43216.3
150.743	43192.9
150.74	43169.5
150.74	43146.1
150.741	43122.7
150.749	43099.2
150.738	43075.7
150.734	43052.2
150.73	43028.8
150.738	43005.4
150.737	42981.9
150.732	42958.4
150.734	42934.9
150.732	42911.4
150.731	42887.9
150.731	42864.4
150.733	42840.8
150.732	42817.3
150.731	42793.7
150.732	42770
150.731	42746.4
150.73	42722.7
150.732	42699
150.73	42675.3
150.729	42651.6
150.73	42627.8
150.732	42604
150.731	42580.2
150.731	42556.3
150.731	42532.5
150.732	42508.5
150.734	42484.6
150.732	42460.6
150.731	42436.6
150.731	42412.6
150.732	42388.6
150.718	42364.6
150.733	42340.6
150.731	42316.6
150.716	42292.6
150.733	42268.6
150.732	42244.5
150.728	42220.5
150.726	42196.4
150.694	42172.6
150.728	42148.7
150.73	42124.7
150.704	42100.9
150.724	42077
150.729	42053.1
150.733	42029.1
150.731	42005
150.731	41980.8
150.712	41956.8
150.732	41932.7
150.731	41908.5
150.731	41884.3
150.732	41860
150.726	41835.8
150.73	41811.5
150.731	41787.2
150.732	41762.9
150.729	41738.6
150.73	41714.2
150.73	41689.9
150.732	41665.5
150.731	41641.2
150.731	41616.8
150.732	41592.4
150.731	41568
150.732	41543.6
150.731	41519.3
150.732	41494.9
150.73	41470.5
150.731	41446.1
150.732	41421.7
150.731	41397.4
150.732	41373
150.732	41348.6
150.732	41324.2
150.732	41299.9
150.732	41275.5
150.732	41251.1
150.733	41226.7
150.733	41202.4
150.732	41178
150.73	41153.6
150.731	41129.3
150.732	41105
150.731	41080.6
150.731	41056.3
150.729	41032
150.733	41007.7
150.731	40983.4
150.704	40959.2
150.731	40935.1
150.732	40910.9
150.731	40886.7
150.731	40862.4
150.732	40838.2
150.732	40813.9
150.734	40789.6
150.733	40765.2
150.731	40740.9
150.733	40716.6
150.734	40692.2
150.733	40667.9
150.735	40643.5
150.705	40619.3
150.704	40595.3
150.733	40571.2
150.734	40547
150.73	40522.8
150.733	40498.6
150.712	40474.5
150.724	40450.4
150.704	40426.4
150.711	40402.5
150.719	40378.5
150.72	40354.6
150.714	40330.7
150.699	40306.9
150.697	40283.2
150.709	40259.5
150.701	40235.8
150.693	40212.3
150.7	40188.7
150.701	40165.2
150.706	40141.6
150.701	40118
150.701	40094.4
150.691	40070.9
150.694	40047.3
150.695	40023.8
150.694	40000.3
150.696	39976.7
150.694	39953.2
150.69	39929.6
150.69	39906.1
150.683	39882.6
150.691	39859.1
150.69	39835.5
150.694	39811.9
150.7	39788.2
150.691	39764.5
150.683	39740.9
150.712	39717
150.687	39693.2
150.685	39669.4
150.684	39645.7
150.686	39621.9
150.68	39598.2
150.684	39574.5
150.68	39550.8
150.68	39527.1
150.682	39503.4
150.682	39479.7
150.679	39456
150.673	39432.4
150.675	39408.7
150.672	39385.1
150.666	39361.5
150.673	39337.9
150.673	39314.3
150.667	39290.7
150.669	39267.2
150.675	39243.5
150.673	39219.9
150.657	39196.3
150.67	39172.7
150.669	39149.1
150.66	39125.5
150.668	39101.9
150.671	39078.2
150.663	39054.5
150.671	39030.8
150.652	39007.2
150.652	38983.6
150.681	38959.8
150.647	38936.2
150.655	38912.6
150.657	38889
150.669	38865.3
150.635	38841.7
150.668	38818.1
150.631	38794.6
150.635	38771.2
150.671	38747.6
150.64	38724.1
150.671	38700.4
150.672	38676.5
150.631	38652.9
150.635	38629.3
150.669	38605.5
150.67	38581.7
150.638	38557.9
150.666	38534
150.632	38510.2
150.631	38486.5
150.672	38462.7
150.669	38438.7
150.632	38414.8
150.67	38390.8
150.631	38367
150.633	38343.2
150.661	38319.3
150.662	38295.3
150.632	38271.4
150.63	38247.7
150.63	38224
150.666	38200.1
150.632	38176.3
150.649	38152.4
150.665	38128.4
150.629	38104.5
150.634	38080.7
150.638	38056.8
150.661	38032.8
150.63	38009
150.644	37985.1
150.669	37960.9
150.668	37936.7
150.67	37912.3
150.669	37887.8
150.633	37863.4
150.631	37839.3
150.669	37814.9
150.635	37790.7
150.669	37766.3
150.632	37742.1
150.669	37717.8
150.629	37693.6
150.671	37669.3
150.633	37645.1
150.652	37620.8
150.67	37596.5
150.629	37572.3
150.631	37548.2
150.631	37524.2
150.628	37500.3
150.63	37476.5
150.642	37452.7
150.669	37428.6
150.631	37404.6
150.669	37380.4
150.669	37356.1
150.634	37331.8
150.662	37307.5
150.631	37283.3
150.63	37259.2
150.669	37234.9
150.63	37210.8
150.63	37186.8
150.632	37162.8
150.645	37138.7
150.631	37114.8
150.632	37090.9
150.637	37066.9
150.631	37043
150.63	37019.2
150.629	36995.4
150.631	36971.5
150.629	36947.7
150.629	36923.9
150.63	36900.1
150.631	36876.3
150.631	36852.5
150.63	36828.6
150.629	36804.8
150.63	36780.9
150.629	36757.1
150.623	36733.2
150.624	36709.4
150.614	36685.7
150.619	36662
150.609	36638.3
150.62	36614.7
150.628	36590.9
150.62	36567.2
150.621	36543.5
150.618	36519.7
150.621	36496
150.623	36472.2
150.622	36448.3
150.629	36424.4
150.624	36400.5
150.628	36376.5
150.614	36352.6
150.619	36328.6
150.611	36304.8
150.62	36280.8
150.613	36257
150.611	36233.1
150.611	36209.3
150.615	36185.5
150.621	36161.6
150.611	36137.7
150.602	36114
150.618	36090.1
150.611	36066.3
150.581	36042.6
150.593	36019.1
150.607	35995.5
150.585	35972
150.583	35948.6
150.584	35925.3
150.591	35901.9
150.574	35878.7
150.576	35855.5
150.58	35832.4
150.571	35809.3
150.573	35786.3
150.568	35763.2
150.574	35740.2
150.576	35717.2
150.572	35694.1
150.571	35671
150.554	35648
150.562	35625
150.553	35602.1
150.548	35579.3
150.548	35556.4
150.568	35533.5
150.547	35510.6
150.567	35487.6
150.565	35464.5
150.548	35441.5
150.56	35418.3
150.551	35395.2
150.551	35372.1
150.551	35348.9
150.551	35325.7
150.549	35302.5
150.552	35279.3
150.546	35256
150.551	35232.7
150.549	35209.4
150.546	35186.1
150.536	35162.8
150.539	35139.5
150.53	35116.3
150.543	35093
150.526	35069.8
150.507	35046.8
150.528	35023.8
150.532	35000.7
150.503	34977.8
150.513	34954.9
150.509	34932
150.511	34909.2
150.511	34886.4
150.522	34863.5
150.538	34840.4
150.52	34817.2
150.517	34794
150.528	34770.8
150.525	34747.4
150.509	34724.1
150.509	34700.8
150.511	34677.6
150.516	34654.2
150.512	34630.9
150.506	34607.6
150.503	34584.3
150.506	34561
150.504	34537.7
150.506	34514.4
150.503	34491.1
150.496	34467.8
150.493	34444.5
150.5	34421.3
150.497	34398
150.501	34374.7
150.488	34351.4
150.493	34328.2
150.494	34304.9
150.488	34281.6
150.492	34258.3
150.49	34235
150.489	34211.7
150.493	34188.4
150.475	34165.1
150.48	34141.8
150.486	34118.6
150.479	34095.3
150.487	34072
150.488	34048.6
150.457	34025.4
150.459	34002.3
150.448	33979.3
150.486	33956.2
150.45	33933.2
150.445	33910.3
150.45	33887.5
150.453	33864.7
150.45	33841.9
150.489	33818.8
150.464	33795.7
150.485	33772.4
150.45	33749.1
150.451	33726
150.448	33702.8
150.489	33679.4
150.486	33655.8
150.448	33632.3
150.451	33608.8
150.451	33585.4
150.45	33562
150.463	33538.6
150.45	33515.2
150.45	33491.7
150.449	33468.3
150.447	33444.9
150.446	33421.6
150.437	33398.2
150.433	33375
150.429	33351.8
150.425	33328.8
150.423	33305.7
150.409	33282.9
150.395	33260.2
150.391	33237.7
150.387	33215.4
150.398	33193
150.386	33170.8
150.387	33148.7
150.381	33126.6
150.384	33104.5
150.386	33082.4
150.379	33060.3
150.387	33038.1
150.362	33016.1
150.387	32993.9
150.382	32971.7
150.377	32949.4
150.37	32927.1
150.364	32904.9
150.365	32882.6
150.363	32860.4
150.357	32838.1
150.346	32815.9
150.327	32793.9
150.333	32772
150.321	32750.2
150.312	32728.5
150.315	32706.9
150.313	32685.4
150.305	32663.9
150.293	32642.5
150.3	32621.2
150.298	32599.9
150.296	32578.5
150.262	32557.4
150.276	32536.3
150.274	32515.2
150.258	32494.2
150.257	32473.3
150.252	32452.4
150.241	32431.6
150.225	32411
150.226	32390.4
150.219	32370
150.214	32349.6
150.208	32329.2
150.202	32309
150.201	32288.7
150.2	32268.4
150.2	32248.1
150.2	32227.7
150.197	32207.3
150.186	32186.8
150.184	32166.4
150.163	32146
150.149	32125.7
150.141	32105.5
150.126	32085.6
150.121	32065.7
150.116	32046
150.116	32026.3
150.116	32006.6
150.117	31986.8
150.113	31967
150.103	31947.2
150.074	31927.6
150.068	31908
150.056	31888.6
150.043	31869.4
150.025	31850.4
150.016	31831.5
150.039	31812.6
150.025	31793.7
150.015	31774.8
150.003	31756
149.991	31737.3
149.997	31718.6
149.971	31699.9
149.969	31681.4
149.958	31662.8
149.936	31644.5
149.939	31626.2
149.929	31608
149.924	31589.8
149.927	31571.5
149.929	31553.2
149.91	31534.8
149.888	31516.5
149.87	31498.4
149.87	31480.4
149.867	31462.3
149.842	31444.4
149.866	31426.4
149.853	31408.4
149.827	31390.4
149.816	31372.5
149.805	31354.7
149.787	31337
149.761	31319.5
149.761	31302.2
149.763	31284.9
149.742	31267.8
149.74	31250.6
149.736	31233.5
149.716	31216.4
149.692	31199.6
149.7	31182.7
149.679	31165.9
149.679	31149.1
149.676	31132.3
149.658	31115.5
149.639	31098.8
149.619	31082.3
149.616	31065.8
149.617	31049.3
149.576	31033
149.576	31016.8
149.567	31000.6
149.559	30984.5
149.526	30968.6
149.507	30952.9
149.514	30937.2
149.491	30921.7
149.488	30906.2
149.458	30890.9
149.445	30875.7
149.439	30860.6
149.418	30845.6
149.386	30830.9
149.388	30816.3
149.371	30801.8
149.362	30787.3
149.337	30773
149.305	30759
149.303	30745.1
149.302	30731.2
149.273	30717.4
149.261	30703.7
149.226	30690.3
149.24	30676.8
149.214	30663.4
149.177	30650.3
149.152	30637.4
149.138	30624.7
149.137	30612
149.122	30599.5
149.092	30587
149.078	30574.8
149.072	30562.5
149.052	30550.3
149.014	30538.3
148.993	30526.5
148.954	30515
148.95	30503.8
148.94	30492.6
148.917	30481.5
148.881	30470.7
148.877	30459.9
148.839	30449.4
148.818	30439.1
148.805	30429
148.767	30419.1
148.764	30409.2
148.734	30399.6
148.704	30390.1
148.682	30380.9
148.679	30371.7
148.639	30362.6
148.615	30353.8
148.611	30345
148.568	30336.3
148.549	30327.9
148.548	30319.4
148.501	30311.1
148.48	30303
148.441	30295.1
148.427	30287.3
148.389	30279.8
148.371	30272.5
148.346	30265.4
148.323	30258.4
148.293	30251.5
148.261	30244.9
148.244	30238.4
148.222	30232
148.19	30225.8
148.147	30219.8
148.148	30213.9
148.119	30208
148.078	30202.4
148.07	30196.7
148.03	30191.3
147.995	30186
147.99	30180.8
147.95	30175.7
147.93	30170.7
147.91	30165.7
147.873	30160.8
147.833	30156.1
147.807	30151.7
147.8	30147.2
147.759	30142.8
147.712	30138.7
147.696	30134.8
147.678	30130.9
147.64	30127.1
147.631	30123.3
147.6	30119.6
147.559	30116
147.549	30112.4
147.51	30108.9
147.488	30105.4
147.445	30102.1
147.442	30098.7
147.406	30095.4
147.383	30092.1
147.363	30088.8
147.314	30085.6
147.298	30082.4
147.297	30079.1
147.251	30075.8
147.194	30072.7
147.174	30069.8
147.169	30066.8
147.121	30063.9
147.093	30061.2
147.066	30058.5
147.053	30055.9
147.015	30053.2
147.006	30050.5
146.982	30047.8
146.948	30045
146.924	30042.2
146.921	30039.2
146.877	30036.1
146.862	30033
146.835	30029.8
146.811	30026.6
146.763	30023.4
146.751	30020.2
146.723	30017
146.691	30013.8
146.679	30010.6
146.64	30007.4
146.62	30004.2
146.577	30001.1
146.579	29998
146.553	29994.7
146.507	29991.5
146.49	29988.4
146.471	29985.1
146.438	29981.9
146.427	29978.6
146.389	29975.3
146.355	29972.1
146.324	29969
146.32	29965.8
146.279	29962.7
146.239	29959.7
146.195	29956.9
146.193	29954.2
146.162	29951.5
146.127	29948.9
146.124	29946.2
146.072	29943.7
146.054	29941.2
146.012	29938.8
146.007	29936.4
145.984	29934
145.948	29931.6
145.926	29929.1
145.895	29926.7
145.858	29924.4
145.857	29922
145.806	29919.7
145.795	29917.4
145.756	29915.1
145.743	29912.8
145.701	29910.5
145.693	29908.2
145.669	29905.8
145.625	29903.5
145.57	29901.4
145.57	29899.4
145.562	29897.2
145.506	29895.2
145.489	29893.1
145.461	29891.2
145.44	29889.2
145.419	29887.1
145.414	29884.9
145.367	29882.7
145.322	29880.6
145.32	29878.4
145.285	29876.2
145.245	29874.2
145.25	29872
145.201	29869.8
145.171	29867.7
145.157	29865.6
145.125	29863.5
145.094	29861.5
145.069	29859.5
145.046	29857.4
145.004	29855.5
144.977	29853.7
144.945	29852
144.923	29850.4
144.88	29848.9
144.88	29847.4
144.857	29845.8
144.82	29844.2
144.798	29842.6
144.759	29841.1
144.735	29839.6
144.727	29838
144.687	29836.5
144.646	29835
144.626	29833.6
144.598	29832.3
144.555	29831
144.507	29830.1
144.503	29829.2
144.458	29828.4
144.445	29827.7
144.428	29827
144.385	29826.3
144.363	29825.6
144.332	29825
144.304	29824.5
144.3	29823.8
144.255	29823.1
144.212	29822.5
144.195	29822
144.178	29821.4
144.133	29820.9
144.107	29820.4
144.074	29820
144.046	29819.7
144.003	29819.5
143.986	29819.4
143.961	29819.3
143.925	29819.3
143.921	29819.1
143.868	29819.1
143.827	29819.2
143.82	29819.3
143.801	29819.4
143.752	29819.5
143.735	29819.6
143.714	29819.6
143.673	29819.7
143.631	29820
143.626	29820.2
143.587	29820.4
143.555	29820.6
143.548	29820.8
143.506	29821
143.486	29821.1
143.448	29821.3
143.427	29821.4
143.418	29821.4
143.362	29821.5
143.334	29821.6
143.299	29821.9
143.299	29822
143.278	29822
143.236	29821.9
143.195	29822
143.176	29822.1
143.14	29822.2
143.134	29822.2
143.121	29822.1
143.075	29821.9
143.038	29821.8
143.032	29821.6
142.997	29821.4
142.954	29821.2
142.946	29821
142.916	29820.8
142.89	29820.5
142.867	29820.2
142.854	29819.7
142.823	29819.2
142.765	29818.8
142.766	29818.3
142.746	29817.8
142.705	29817.2
142.704	29816.5
142.674	29815.7
142.639	29814.9
142.621	29814
142.6	29813
142.57	29811.9
142.534	29810.9
142.523	29809.8
142.503	29808.7
142.456	29807.6
142.435	29806.5
142.433	29805.2
142.394	29804
142.371	29802.7
142.332	29801.5
142.321	29800.3
142.28	29799.1
142.271	29797.9
142.252	29796.6
142.214	29795.3
142.196	29794
142.183	29792.5
142.153	29791
142.125	29789.5
142.087	29788.1
142.063	29786.8
142.053	29785.3
142.025	29783.9
141.997	29782.5
141.977	29781
141.958	29779.5
141.92	29778
141.933	29776.3
141.876	29774.6
141.875	29772.8
141.832	29771.1
141.815	29769.3
141.783	29767.5
141.758	29765.8
141.722	29764.2
141.713	29762.6
141.694	29760.9
141.684	29759.1
141.628	29757.4
141.63	29755.6
141.588	29753.9
141.588	29752.1
141.558	29750.2
141.535	29748.2
141.499	29746.3
141.473	29744.4
141.46	29742.5
141.443	29740.6
141.4	29738.7
141.376	29736.8
141.376	29734.9
141.338	29733
141.328	29730.9
141.298	29728.9
141.276	29726.9
141.273	29724.6
141.236	29722.4
141.211	29720.1
141.19	29717.8
141.19	29715.3
141.169	29712.7
141.146	29710
141.147	29707
141.132	29703.7
141.1	29700.3
141.079	29696.9
141.068	29693.2
141.051	29689.4
141.026	29685.5
141.025	29681.3
141.023	29676.9
141.013	29672.1
141.004	29667.1
140.998	29661.6
140.97	29656
140.95	29650.2
140.961	29644.1
140.938	29637.7
140.941	29631
140.903	29624.2
140.939	29617
140.919	29609.4
140.91	29601.4
140.901	29593.2
140.893	29584.7
140.887	29575.9
140.881	29566.8
140.868	29557.5
140.866	29547.9
140.878	29537.9
140.851	29527.7
140.879	29517
140.858	29506.1
140.838	29495
140.839	29483.6
140.838	29472
140.826	29460.3
140.828	29448.3
140.819	29436.1
140.822	29423.6
140.805	29411.1
140.797	29398.4
140.776	29385.7
140.794	29372.9
140.778	29359.9
140.766	29346.9
140.763	29333.8
140.766	29320.5
140.777	29307.1
140.776	29293.4
140.756	29279.6
140.752	29265.7
140.752	29251.6
140.752	29237.4
140.752	29223.1
140.752	29208.6
140.754	29193.9
140.744	29179.1
140.753	29164
140.716	29149.1
140.754	29133.8
140.751	29118.4
140.738	29102.8
140.73	29087.2
140.723	29071.5
140.717	29055.8
140.72	29040
140.71	29024.2
140.712	29008.4
140.708	28992.5
140.706	28976.6
140.702	28960.6
140.712	28944.6
140.694	28928.5
140.702	28912.3
140.703	28896
140.696	28879.7
140.703	28863.3
140.701	28846.7
140.691	28830.2
140.695	28813.5
140.695	28796.8
140.694	28780
140.683	28763.2
140.69	28746.3
140.695	28729.3
140.69	28712.3
140.696	28695.1
140.69	28677.9
140.677	28660.7
140.665	28643.6
140.679	28626.4
140.689	28609.1
140.688	28591.7
140.692	28574.2
140.677	28556.7
140.677	28539.2
140.691	28521.5
140.676	28503.9
140.691	28486.1
140.667	28468.4
140.675	28450.6
140.675	28432.9
140.657	28415.2
140.667	28397.6
140.651	28380
140.66	28362.5
140.654	28345
140.66	28327.4
140.693	28309.6
140.691	28291.6
140.65	28273.8
140.692	28255.7
140.662	28237.6
140.649	28219.7
140.692	28201.5
140.688	28183.2
140.652	28165.1
140.673	28146.8
140.653	28128.7
140.653	28110.6
140.65	28092.6
140.651	28074.6
140.687	28056.4
140.65	28038.3
140.669	28020.1
140.65	28002
140.649	27983.9
140.624	27966.1
140.643	27948.2
140.644	27930.4
140.643	27912.6
140.634	27894.8
140.637	27877.1
140.627	27859.4
140.628	27841.8
140.635	27824.1
140.62	27806.6
140.626	27789
140.613	27771.5
140.627	27754
140.609	27736.6
140.587	27719.4
140.595	27702.2
140.6	27685.1
140.611	27668
140.625	27650.7
140.627	27633.2
140.596	27615.8
140.627	27598.2
140.603	27580.7
140.586	27563.3
140.591	27545.9
140.586	27528.6
140.588	27511.3
140.599	27494
140.583	27476.7
140.588	27459.4
140.589	27442
140.606	27424.5
140.601	27406.9
140.59	27389.3
140.599	27371.7
140.582	27354
140.583	27336.4
140.578	27318.8
140.561	27301.3
140.576	27283.9
140.578	27266.4
140.569	27248.9
140.574	27231.4
140.568	27213.9
140.572	27196.4
140.575	27178.9
140.576	27161.2
140.572	27143.6
140.576	27125.9
140.573	27108.2
140.565	27090.4
140.545	27072.8
140.563	27055.2
140.56	27037.6
140.54	27020.1
140.526	27002.8
140.536	26985.5
140.53	26968.4
140.522	26951.3
140.525	26934.3
140.517	26917.4
140.511	26900.5
140.509	26883.8
140.507	26867.1
140.527	26850.3
140.515	26833.4
140.525	26816.5
140.5	26799.6
140.522	26782.7
140.506	26765.7
140.524	26748.6
140.508	26731.5
140.525	26714.2
140.502	26697
140.503	26679.8
140.502	26662.6
140.503	26645.4
140.503	26628.1
140.5	26610.8
140.473	26593.7
140.502	26576.4
140.501	26559.1
140.467	26542
140.504	26524.7
140.503	26507.3
140.51	26489.8
140.507	26472.1
140.501	26454.4
140.502	26436.6
140.502	26418.8
140.502	26400.9
140.5	26383
140.505	26365
140.502	26346.9
140.502	26328.8
140.497	26310.8
140.504	26292.6
140.494	26274.5
140.506	26256.3
140.498	26238
140.497	26219.8
140.502	26201.6
140.496	26183.3
140.495	26165.1
140.493	26146.8
140.484	26128.7
140.496	26110.5
140.48	26092.4
140.493	26074.2
140.495	26056.1
140.486	26037.9
140.493	26019.7
140.48	26001.6
140.481	25983.6
140.463	25965.6
140.492	25947.6
140.47	25929.7
140.474	25911.8
140.492	25893.7
140.471	25875.8
140.475	25857.8
140.465	25839.9
140.463	25822.1
140.471	25804.3
140.471	25786.4
140.465	25768.6
140.461	25750.8
140.477	25733
140.472	25715
140.46	25697.2
140.464	25679.3
140.461	25661.4
140.463	25643.5
140.454	25625.7
